# File: Integrate30.not
# NOTEA     = 
# NOTEB     = Event Detection
# OBSERVER  = Science Aficionado
# DEVICE    = airspy,bias=1,pack=1
# DATADIR   = ../events/
# SITE      = 
# CITY      = Green Bank
# REGION    = West Virginia
# COUNTRY   = US
# TELTYPE   = Pyramid Horn
# FRAME     = TOPO
# GAIN1     = 17.0
# GAIN2     = 11.0
# GAIN3     = 11.0
# GAIN4     = 0.0
# Count     = 1024
# CenterFreq= 1420000000.0
# Bandwidth = 3000000.0
# Duration  = 4.37212
# DeltaX    = 5859.375
# TSYS      = 200.0
# TRX       = 100.0
# TRMS      = 2.0
# TINT      = 1.0
# KPERC     = 100.0
# GAINFACT  = 1.0
# BUNIT     = Counts
# NCHAN     = 0
# NSPEC     = 0
# NTIME     = 1
# NSAMPLES  = 1024
# EPEAK     = 4.10875183718
# ERMS      = 0.995973393526
# EMJD      = 58568.808999981004 
# REFCHAN   = 512.0
# REFSAMPL  = 256.0
# NAVE      = 50
# NMEDIAN   = 256
# Fft_rate  = 5000
# UTC       = 2020-06-28 18:55:27.887695
# SECONDS   =       0.0000000000 
# LST       = 08:05:24.500
# AZ        = 180.0
# EL        = 90.0
# TELLON    = -79:50:22.920
# TELLAT    = +38:25:59.160
# RA        = 08:04:21.110
# DEC       = -52:00:24.700
# GALLON    = 266:23:55.40
# GALLAT    = -10:50:06.40
# ALT_SUN   = +65:05:31.8
# AZ_SUN    = +239:06:16.4
# ETAA      = 0.8
# ETAB      = 0.99
# POLANGLE  = 0.0
# TELSIZEAM = 1.0
# TELSIZEBM = 1.0
# AST_VERS  = 05.01
#   I       Q
0.03359 .00000
0.04216 .00000
0.04562 .00000
0.04947 .00000
0.04987 .00000
0.05164 .00000
0.05479 .00000
0.05415 .00000
0.05702 .00000
0.05741 .00000
0.05973 .00000
0.06204 .00000
0.06358 .00000
0.06352 .00000
0.06518 .00000
0.06693 .00000
0.06885 .00000
0.07233 .00000
0.07437 .00000
0.07280 .00000
0.07576 .00000
0.07711 .00000
0.07726 .00000
0.08158 .00000
0.08317 .00000
0.08582 .00000
0.08567 .00000
0.08855 .00000
0.09086 .00000
0.09335 .00000
0.09584 .00000
0.09624 .00000
0.09771 .00000
0.10139 .00000
0.10204 .00000
0.10545 .00000
0.10960 .00000
0.11385 .00000
0.11768 .00000
0.12337 .00000
0.12802 .00000
0.13538 .00000
0.13686 .00000
0.14433 .00000
0.15230 .00000
0.16110 .00000
0.17516 .00000
0.18654 .00000
0.19887 .00000
0.20980 .00000
0.22627 .00000
0.23716 .00000
0.26242 .00000
0.28332 .00000
0.29554 .00000
0.31868 .00000
0.34541 .00000
0.38403 .00000
0.41328 .00000
0.44713 .00000
0.49024 .00000
0.53787 .00000
0.57647 .00000
0.61684 .00000
0.67827 .00000
0.73383 .00000
0.79941 .00000
0.87826 .00000
0.95200 .00000
1.00164 .00000
1.09729 .00000
1.21862 .00000
1.33643 .00000
1.41782 .00000
1.56687 .00000
1.74319 .00000
1.84607 .00000
2.00643 .00000
2.14087 .00000
2.33994 .00000
2.47573 .00000
2.70535 .00000
2.89371 .00000
3.01198 .00000
3.29768 .00000
3.62237 .00000
3.86586 .00000
4.11272 .00000
4.53133 .00000
4.70777 .00000
5.16589 .00000
5.62783 .00000
5.81658 .00000
6.27735 .00000
6.69253 .00000
7.09831 .00000
7.60780 .00000
8.34226 .00000
8.99964 .00000
9.22231 .00000
9.85127 .00000
10.37541 .00000
11.13216 .00000
11.75391 .00000
12.64245 .00000
13.19757 .00000
14.23688 .00000
15.07659 .00000
16.04439 .00000
16.57186 .00000
17.48427 .00000
19.00889 .00000
19.65597 .00000
20.64824 .00000
21.17043 .00000
22.50276 .00000
23.27398 .00000
25.34746 .00000
26.28290 .00000
26.59824 .00000
28.04480 .00000
29.91365 .00000
31.23259 .00000
33.29223 .00000
34.49018 .00000
35.45248 .00000
36.50834 .00000
38.77081 .00000
40.64420 .00000
41.29861 .00000
41.92234 .00000
43.84014 .00000
45.78175 .00000
47.42455 .00000
48.76033 .00000
51.59408 .00000
51.81841 .00000
52.32426 .00000
55.24660 .00000
56.69916 .00000
59.23580 .00000
60.21445 .00000
61.70232 .00000
64.72777 .00000
64.27456 .00000
67.64104 .00000
70.10001 .00000
72.86057 .00000
73.83939 .00000
76.07414 .00000
76.87533 .00000
77.51655 .00000
78.24739 .00000
79.79896 .00000
83.09747 .00000
82.83221 .00000
88.12935 .00000
88.82285 .00000
90.62757 .00000
89.49269 .00000
93.44939 .00000
94.63352 .00000
94.95803 .00000
93.21062 .00000
97.36646 .00000
100.31273 .00000
102.22842 .00000
101.87547 .00000
103.94926 .00000
105.37817 .00000
105.94314 .00000
108.07848 .00000
108.60896 .00000
110.55995 .00000
112.60929 .00000
114.97961 .00000
112.22503 .00000
113.55153 .00000
115.21128 .00000
116.19269 .00000
117.17587 .00000
120.17232 .00000
122.81258 .00000
122.44374 .00000
123.65343 .00000
123.47538 .00000
126.54223 .00000
125.30495 .00000
124.45210 .00000
128.64922 .00000
127.37959 .00000
126.32996 .00000
129.18001 .00000
128.89267 .00000
128.75706 .00000
128.84015 .00000
126.96598 .00000
129.16455 .00000
133.03439 .00000
132.84424 .00000
135.33246 .00000
134.81226 .00000
135.39828 .00000
133.02454 .00000
133.62523 .00000
135.32603 .00000
134.44586 .00000
135.34311 .00000
136.53709 .00000
139.50259 .00000
135.30873 .00000
134.90013 .00000
136.10327 .00000
138.82848 .00000
144.27518 .00000
141.02142 .00000
139.61499 .00000
137.98125 .00000
138.62042 .00000
142.57643 .00000
144.57117 .00000
140.17461 .00000
137.38509 .00000
139.91718 .00000
141.44630 .00000
141.35808 .00000
149.42282 .00000
144.94475 .00000
143.43056 .00000
143.61417 .00000
141.33549 .00000
141.03998 .00000
141.91609 .00000
143.02725 .00000
142.59961 .00000
141.29616 .00000
143.92024 .00000
141.99751 .00000
143.66690 .00000
143.20509 .00000
141.05884 .00000
143.67506 .00000
142.49010 .00000
142.97101 .00000
141.57771 .00000
142.89279 .00000
144.41818 .00000
145.24168 .00000
145.62277 .00000
143.78835 .00000
143.59259 .00000
142.98590 .00000
140.41095 .00000
144.41913 .00000
143.82605 .00000
143.21642 .00000
145.27390 .00000
145.77597 .00000
146.53386 .00000
145.97159 .00000
147.93468 .00000
146.46451 .00000
144.50948 .00000
145.02129 .00000
144.68167 .00000
148.96324 .00000
144.20375 .00000
147.33537 .00000
141.81033 .00000
143.88582 .00000
147.12221 .00000
145.49107 .00000
145.30666 .00000
146.01590 .00000
144.54370 .00000
150.50563 .00000
145.55975 .00000
147.13504 .00000
146.78078 .00000
145.97258 .00000
144.72105 .00000
145.82225 .00000
146.48796 .00000
149.71243 .00000
146.44000 .00000
147.74510 .00000
150.26765 .00000
146.15369 .00000
150.32623 .00000
149.39627 .00000
144.83134 .00000
149.13557 .00000
145.60088 .00000
147.77263 .00000
148.82005 .00000
148.63701 .00000
145.61536 .00000
149.39871 .00000
146.93941 .00000
148.99820 .00000
147.20450 .00000
142.92125 .00000
147.88605 .00000
147.76111 .00000
148.25842 .00000
149.64790 .00000
147.67294 .00000
145.70987 .00000
147.31685 .00000
148.91908 .00000
147.45802 .00000
147.53165 .00000
149.73659 .00000
147.68541 .00000
147.39502 .00000
150.68756 .00000
152.54964 .00000
150.14969 .00000
148.75157 .00000
152.47537 .00000
149.58588 .00000
148.58362 .00000
144.88594 .00000
148.91399 .00000
149.51143 .00000
147.89534 .00000
149.61324 .00000
147.91714 .00000
146.86424 .00000
151.70673 .00000
150.33456 .00000
145.82495 .00000
150.75507 .00000
149.41304 .00000
148.69781 .00000
148.36546 .00000
145.46187 .00000
147.73708 .00000
148.19826 .00000
151.55603 .00000
150.98270 .00000
152.95528 .00000
151.04018 .00000
150.06348 .00000
149.45520 .00000
153.97906 .00000
150.70050 .00000
149.62277 .00000
149.16965 .00000
149.84554 .00000
152.40450 .00000
145.83983 .00000
146.73999 .00000
147.77994 .00000
151.05446 .00000
148.57057 .00000
150.72423 .00000
147.71170 .00000
147.52809 .00000
154.67099 .00000
146.70314 .00000
149.41496 .00000
147.00897 .00000
147.23315 .00000
149.57245 .00000
150.08691 .00000
152.77235 .00000
148.12155 .00000
150.08975 .00000
147.25558 .00000
143.83397 .00000
150.18919 .00000
152.72818 .00000
154.14040 .00000
145.83672 .00000
144.34811 .00000
148.17879 .00000
150.92201 .00000
151.38025 .00000
153.51633 .00000
151.73282 .00000
149.35828 .00000
148.24100 .00000
148.25133 .00000
151.35886 .00000
149.60870 .00000
153.44345 .00000
150.24628 .00000
152.25919 .00000
146.96637 .00000
148.88792 .00000
149.58626 .00000
146.42287 .00000
147.97574 .00000
149.49432 .00000
150.60997 .00000
150.93120 .00000
152.38737 .00000
151.63129 .00000
152.08601 .00000
152.60606 .00000
149.70132 .00000
152.65082 .00000
150.54803 .00000
153.03268 .00000
154.56320 .00000
154.99301 .00000
148.70815 .00000
150.43826 .00000
149.75349 .00000
146.56102 .00000
148.27069 .00000
145.33830 .00000
146.34966 .00000
144.75801 .00000
149.08551 .00000
150.27921 .00000
148.83360 .00000
150.75194 .00000
151.75198 .00000
148.67509 .00000
152.28969 .00000
154.34686 .00000
150.22662 .00000
150.45358 .00000
150.23537 .00000
147.72285 .00000
149.89859 .00000
150.01611 .00000
150.31590 .00000
149.94389 .00000
144.80347 .00000
150.45840 .00000
146.83412 .00000
149.32375 .00000
146.96317 .00000
149.24672 .00000
151.70381 .00000
152.73874 .00000
147.44908 .00000
152.14828 .00000
149.78928 .00000
148.50703 .00000
151.89883 .00000
151.14661 .00000
152.59232 .00000
147.17549 .00000
148.95589 .00000
151.64943 .00000
153.26076 .00000
150.27222 .00000
145.55774 .00000
148.72656 .00000
151.67801 .00000
149.39453 .00000
151.57852 .00000
150.43802 .00000
148.62776 .00000
153.77779 .00000
148.26083 .00000
152.77882 .00000
145.31314 .00000
146.28918 .00000
148.83099 .00000
149.71936 .00000
146.96327 .00000
150.15137 .00000
147.09016 .00000
152.70503 .00000
145.86694 .00000
148.78105 .00000
150.67365 .00000
148.37979 .00000
152.66037 .00000
147.87427 .00000
146.83916 .00000
146.93851 .00000
151.85242 .00000
149.51945 .00000
150.26964 .00000
148.40602 .00000
147.71930 .00000
147.71030 .00000
145.66132 .00000
145.12241 .00000
148.17290 .00000
146.67818 .00000
148.10817 .00000
150.74391 .00000
148.46117 .00000
146.43208 .00000
146.46333 .00000
145.11240 .00000
149.74985 .00000
147.28723 .00000
147.87302 .00000
147.56563 .00000
147.10823 .00000
145.52582 .00000
147.71208 .00000
150.66017 .00000
147.42102 .00000
146.61490 .00000
147.06874 .00000
148.36015 .00000
149.66911 .00000
149.62990 .00000
145.70326 .00000
144.53941 .00000
149.23045 .00000
147.84608 .00000
146.67679 .00000
147.06612 .00000
150.02573 .00000
148.95424 .00000
144.59457 .00000
146.01114 .00000
146.31645 .00000
146.97409 .00000
148.38190 .00000
147.42532 .00000
149.08116 .00000
145.60417 .00000
143.37531 .00000
142.68420 .00000
148.02928 .00000
146.93523 .00000
146.37061 .00000
144.33932 .00000
147.12424 .00000
147.82512 .00000
151.95200 .00000
145.53909 .00000
146.03731 .00000
150.62608 .00000
144.95900 .00000
146.02626 .00000
144.63606 .00000
144.67461 .00000
143.98396 .00000
142.54877 .00000
144.25255 .00000
144.22937 .00000
143.83173 .00000
148.38770 .00000
147.96884 .00000
146.91386 .00000
146.99277 .00000
146.74899 .00000
146.77310 .00000
147.68210 .00000
147.17157 .00000
147.65938 .00000
146.00458 .00000
148.06245 .00000
148.64555 .00000
148.86407 .00000
147.54973 .00000
147.50128 .00000
147.80962 .00000
146.98749 .00000
142.94067 .00000
147.22273 .00000
147.83574 .00000
143.77122 .00000
144.58974 .00000
143.86882 .00000
146.05759 .00000
144.94696 .00000
145.86246 .00000
149.10883 .00000
147.19621 .00000
146.58235 .00000
144.38628 .00000
146.23361 .00000
145.98019 .00000
148.16920 .00000
146.19037 .00000
149.70659 .00000
146.22739 .00000
146.75819 .00000
145.44818 .00000
147.73203 .00000
146.85890 .00000
146.43349 .00000
146.78934 .00000
145.12776 .00000
144.05627 .00000
144.19235 .00000
149.36824 .00000
149.95988 .00000
145.88371 .00000
150.04070 .00000
149.55943 .00000
148.35561 .00000
147.38872 .00000
149.86874 .00000
152.09221 .00000
152.37447 .00000
147.18570 .00000
148.02159 .00000
145.66119 .00000
148.84776 .00000
147.82184 .00000
147.34102 .00000
148.25536 .00000
149.98448 .00000
147.76204 .00000
148.45761 .00000
150.73610 .00000
148.03238 .00000
147.58856 .00000
154.42792 .00000
150.10359 .00000
144.54689 .00000
146.96907 .00000
150.92119 .00000
149.58846 .00000
149.50690 .00000
152.75133 .00000
154.90730 .00000
149.38518 .00000
151.12259 .00000
153.21880 .00000
151.41174 .00000
150.19328 .00000
149.58968 .00000
151.95998 .00000
152.52383 .00000
152.13206 .00000
151.16759 .00000
150.93593 .00000
151.46504 .00000
150.13481 .00000
154.46671 .00000
154.19150 .00000
157.08829 .00000
150.77382 .00000
152.11307 .00000
151.36407 .00000
152.70688 .00000
150.82643 .00000
152.34503 .00000
151.93034 .00000
156.16393 .00000
159.00977 .00000
154.27985 .00000
152.24055 .00000
151.20979 .00000
153.11633 .00000
153.05081 .00000
152.02678 .00000
151.95152 .00000
155.17773 .00000
155.21585 .00000
155.20840 .00000
157.34552 .00000
155.50935 .00000
153.36996 .00000
152.62282 .00000
154.94002 .00000
154.38562 .00000
158.66997 .00000
158.33542 .00000
156.04082 .00000
159.00603 .00000
156.97514 .00000
154.88689 .00000
156.00964 .00000
156.76163 .00000
158.08049 .00000
159.64085 .00000
156.64447 .00000
157.36919 .00000
155.73679 .00000
154.17462 .00000
160.10992 .00000
160.37033 .00000
157.04369 .00000
156.70158 .00000
160.41954 .00000
157.18117 .00000
157.39676 .00000
157.12340 .00000
157.19250 .00000
159.83315 .00000
159.84653 .00000
156.24899 .00000
156.33423 .00000
162.01752 .00000
161.57416 .00000
160.34253 .00000
161.28210 .00000
163.88925 .00000
161.02144 .00000
160.65820 .00000
165.83365 .00000
166.52286 .00000
164.18175 .00000
158.92429 .00000
161.48445 .00000
161.76491 .00000
163.50511 .00000
166.07222 .00000
165.47353 .00000
166.18602 .00000
167.52934 .00000
166.24677 .00000
168.30690 .00000
172.08829 .00000
166.33362 .00000
168.02122 .00000
169.13733 .00000
169.89374 .00000
168.73204 .00000
167.49001 .00000
167.33368 .00000
174.42123 .00000
171.41951 .00000
169.37903 .00000
173.34322 .00000
171.37918 .00000
170.81918 .00000
173.88274 .00000
174.59766 .00000
172.68704 .00000
175.34062 .00000
174.46739 .00000
173.25453 .00000
179.64514 .00000
176.53444 .00000
176.08063 .00000
177.94543 .00000
180.20685 .00000
178.40617 .00000
177.76170 .00000
179.16463 .00000
180.09033 .00000
180.71318 .00000
182.53664 .00000
182.41739 .00000
183.17166 .00000
182.43370 .00000
187.30173 .00000
187.69366 .00000
188.79173 .00000
180.76682 .00000
187.52467 .00000
184.54356 .00000
186.45219 .00000
191.06085 .00000
191.20776 .00000
194.44038 .00000
189.96370 .00000
193.35135 .00000
193.96759 .00000
198.11864 .00000
198.54947 .00000
194.80524 .00000
201.37691 .00000
199.23413 .00000
205.21300 .00000
201.18535 .00000
198.62776 .00000
200.55896 .00000
203.47983 .00000
209.53317 .00000
204.52393 .00000
206.62022 .00000
209.20207 .00000
208.23221 .00000
208.13298 .00000
212.95338 .00000
207.23737 .00000
215.54535 .00000
212.82262 .00000
218.90765 .00000
222.25952 .00000
218.02771 .00000
220.55211 .00000
219.59911 .00000
225.69066 .00000
221.49127 .00000
226.87772 .00000
226.12711 .00000
225.48132 .00000
234.85831 .00000
226.94131 .00000
228.55766 .00000
228.90092 .00000
231.04192 .00000
235.17204 .00000
236.16203 .00000
234.06766 .00000
238.97998 .00000
239.87718 .00000
243.09006 .00000
235.23886 .00000
242.94806 .00000
246.09309 .00000
250.11409 .00000
248.58403 .00000
247.30956 .00000
243.32137 .00000
245.37256 .00000
248.89629 .00000
250.05144 .00000
254.30196 .00000
251.29904 .00000
246.23970 .00000
248.45374 .00000
246.81531 .00000
248.30840 .00000
245.70818 .00000
246.62975 .00000
246.83821 .00000
247.10564 .00000
242.27489 .00000
247.15004 .00000
247.64673 .00000
241.91422 .00000
240.64844 .00000
231.90576 .00000
230.78232 .00000
235.63159 .00000
227.94397 .00000
221.29338 .00000
223.91266 .00000
217.76344 .00000
210.91249 .00000
205.55110 .00000
203.29495 .00000
201.51633 .00000
193.05719 .00000
189.28888 .00000
185.90184 .00000
179.81628 .00000
175.74597 .00000
164.99925 .00000
161.46002 .00000
154.74289 .00000
150.57661 .00000
153.08376 .00000
139.88943 .00000
131.75465 .00000
127.80876 .00000
121.80936 .00000
115.11684 .00000
113.09643 .00000
106.30782 .00000
99.73315 .00000
99.45085 .00000
91.33334 .00000
86.07587 .00000
79.99979 .00000
79.96421 .00000
74.47511 .00000
68.29136 .00000
66.60486 .00000
61.14570 .00000
56.84298 .00000
54.62769 .00000
51.28328 .00000
47.54570 .00000
45.10953 .00000
43.54954 .00000
40.87666 .00000
37.32266 .00000
33.90033 .00000
32.97264 .00000
30.22181 .00000
27.77443 .00000
26.57433 .00000
24.68990 .00000
23.41150 .00000
21.80969 .00000
19.65712 .00000
18.48358 .00000
16.93731 .00000
15.90687 .00000
14.79420 .00000
13.74062 .00000
12.48891 .00000
11.46706 .00000
10.96387 .00000
9.98011 .00000
9.14978 .00000
8.40944 .00000
7.94956 .00000
7.35660 .00000
6.68015 .00000
6.25419 .00000
5.78955 .00000
5.11941 .00000
4.75572 .00000
4.47000 .00000
3.99116 .00000
3.63173 .00000
3.35124 .00000
3.05367 .00000
2.77512 .00000
2.54688 .00000
2.21129 .00000
2.08010 .00000
1.92942 .00000
1.73687 .00000
1.58580 .00000
1.39675 .00000
1.26650 .00000
1.11528 .00000
1.00928 .00000
0.91271 .00000
0.82132 .00000
0.74670 .00000
0.64561 .00000
0.57588 .00000
0.52117 .00000
0.45011 .00000
0.41957 .00000
0.36331 .00000
0.32568 .00000
0.29139 .00000
0.26724 .00000
0.22799 .00000
0.20547 .00000
0.19343 .00000
0.17369 .00000
0.15677 .00000
0.14445 .00000
0.13645 .00000
0.12535 .00000
0.12159 .00000
0.11750 .00000
0.11364 .00000
0.11280 .00000
0.11138 .00000
0.11036 .00000
0.11102 .00000
0.11090 .00000
0.11323 .00000
0.11437 .00000
0.11367 .00000
0.11693 .00000
0.12265 .00000
0.12713 .00000
0.12995 .00000
0.13003 .00000
0.13264 .00000
0.13727 .00000
0.13975 .00000
0.14138 .00000
0.13997 .00000
0.14549 .00000
0.14808 .00000
0.14812 .00000
0.14929 .00000
0.14869 .00000
0.15303 .00000
0.15358 .00000
0.14813 .00000
0.14567 .00000
0.15053 .00000
0.15386 .00000
0.15567 .00000
0.15850 .00000
0.15029 .00000
0.14510 .00000
0.14679 .00000
0.13708 .00000
0.13555 .00000
0.13184 .00000
0.12719 .00000
0.12032 .00000
0.11765 .00000
0.11281 .00000
0.10940 .00000
0.10640 .00000
0.10443 .00000
0.10109 .00000
0.09512 .00000
0.09165 .00000
0.08622 .00000
0.08275 .00000
0.08041 .00000
0.07635 .00000
0.07423 .00000
0.07088 .00000
0.06541 .00000
0.06312 .00000
0.06143 .00000
0.05739 .00000
0.05717 .00000
0.05740 .00000
0.06192 .00000
0.06495 .00000
0.06024 .00000
0.05251 .00000
0.04737 .00000
0.04476 .00000
0.04338 .00000
0.03997 .00000
0.03930 .00000
0.03812 .00000
0.03709 .00000
0.03703 .00000
0.03704 .00000
0.03631 .00000
0.03712 .00000
0.03684 .00000
0.03552 .00000
0.03619 .00000
0.03626 .00000
0.03644 .00000
0.03793 .00000
0.03725 .00000
0.03767 .00000
0.03919 .00000
0.03778 .00000
0.03991 .00000
0.04051 .00000
0.04041 .00000
0.04152 .00000
0.04053 .00000
0.03942 .00000
