# File: Integrate60.not
# NOTEA     = None Attached.  AIRSPY Test
# NOTEB     = Spectral Integration AIRSPY-mini Test
# OBSERVER  = Science Aficionado
# DEVICE    = airspy,bias=1,pack=1
# DATADIR   = ../data/
# SITE      = None Attached.  AIRSPY Test
# CITY      = Green Bank
# REGION    = West Virginia
# COUNTRY   = US
# TELTYPE   = Bubble Wrap  Horn
# FRAME     = TOPO
# GAIN1     = 15.0
# GAIN2     = 15.0
# GAIN3     = 15.0
# GAIN4     = 0.0
# Count     = 1024
# CenterFreq= 1420000000.0
# Bandwidth = 6000000.0
# Duration  = 17.47464
# DeltaX    = 5859.375
# TSYS      = 200.0
# TRX       = 100.0
# TRMS      = 2.0
# TINT      = 1.0
# KPERC     = 100.0
# GAINFACT  = 1.0
# BUNIT     = Counts
# NCHAN     = 1024
# NSPEC     = 1
# NTIME     = 0
# NSAMPLES  = 0
# EPEAK     = 4.10875183718
# ERMS      = 0.995973393526
# EMJD      = 58568.808999981004 
# REFCHAN   = 512.0
# REFSAMPL  = 256.0
# NAVE      = 100
# NMEDIAN   = 1024
# Fft_rate  = 5000
# UTC       = 2020-05-29 14:19:43.586876
# SECONDS   =       0.0000000000 
# LST       = 01:30:38.190
# AZ        = 180.0
# EL        = 90.0
# TELLON    = -79:50:22.920
# TELLAT    = +38:25:59.160
# RA        = 01:28:18.660
# DEC       = +38:13:40.900
# GALLON    = 130:51:15.90
# GALLAT    = -24:04:33.00
# ALT_SUN   = +48:42:13.6
# AZ_SUN    = +100:44:55.1
# ETAA      = 0.8
# ETAB      = 0.99
# POLANGLE  = 0.0
# TELSIZEAM = 1.0
# TELSIZEBM = 1.0
# AST_VERS  = 05.01
0000 1417002929 0.0316
0001 1417008789 0.0347
0002 1417014648 0.0294
0003 1417020507 0.0315
0004 1417026367 0.0330
0005 1417032226 0.0338
0006 1417038085 0.0340
0007 1417043945 0.0343
0008 1417049804 0.0356
0009 1417055664 0.0370
0010 1417061523 0.0381
0011 1417067382 0.0400
0012 1417073242 0.0424
0013 1417079101 0.0452
0014 1417084960 0.0508
0015 1417090820 0.0567
0016 1417096679 0.0538
0017 1417102539 0.0538
0018 1417108398 0.0558
0019 1417114257 0.0582
0020 1417120117 0.0636
0021 1417125976 0.0671
0022 1417131835 0.0711
0023 1417137695 0.0756
0024 1417143554 0.0804
0025 1417149414 0.0868
0026 1417155273 0.0930
0027 1417161132 0.1012
0028 1417166992 0.1080
0029 1417172851 0.1168
0030 1417178710 0.1270
0031 1417184570 0.1376
0032 1417190429 0.1472
0033 1417196289 0.1610
0034 1417202148 0.1755
0035 1417208007 0.1909
0036 1417213867 0.2084
0037 1417219726 0.2286
0038 1417225585 0.2445
0039 1417231445 0.2683
0040 1417237304 0.2983
0041 1417243164 0.3253
0042 1417249023 0.3524
0043 1417254882 0.3858
0044 1417260742 0.4261
0045 1417266601 0.4642
0046 1417272460 0.5041
0047 1417278320 0.5514
0048 1417284179 0.6095
0049 1417290039 0.6660
0050 1417295898 0.7247
0051 1417301757 0.7857
0052 1417307617 0.8589
0053 1417313476 0.9409
0054 1417319335 1.0169
0055 1417325195 1.0990
0056 1417331054 1.2104
0057 1417336914 1.3351
0058 1417342773 1.4274
0059 1417348632 1.5314
0060 1417354492 1.6823
0061 1417360351 1.8288
0062 1417366210 1.9698
0063 1417372070 2.1151
0064 1417377929 2.2966
0065 1417383789 2.4603
0066 1417389648 2.6714
0067 1417395507 2.8668
0068 1417401367 3.0825
0069 1417407226 3.3106
0070 1417413085 3.5603
0071 1417418945 3.7646
0072 1417424804 4.0537
0073 1417430664 4.3575
0074 1417436523 4.7448
0075 1417442382 4.9895
0076 1417448242 5.3063
0077 1417454101 5.6470
0078 1417459960 6.0117
0079 1417465820 6.3840
0080 1417471679 6.8364
0081 1417477539 7.2782
0082 1417483398 7.6612
0083 1417489257 8.0840
0084 1417495117 8.6441
0085 1417500976 9.0957
0086 1417506835 9.5975
0087 1417512695 10.1179
0088 1417518554 10.7078
0089 1417524414 11.2082
0090 1417530273 11.9325
0091 1417536132 12.4695
0092 1417541992 12.9798
0093 1417547851 13.5829
0094 1417553710 14.2769
0095 1417559570 14.9153
0096 1417565429 15.5307
0097 1417571289 16.1237
0098 1417577148 16.7720
0099 1417583007 17.5319
0100 1417588867 18.3075
0101 1417594726 18.9780
0102 1417600585 19.6284
0103 1417606445 20.5417
0104 1417612304 21.4675
0105 1417618164 21.8463
0106 1417624023 22.3628
0107 1417629882 23.4397
0108 1417635742 23.8406
0109 1417641601 24.5589
0110 1417647460 25.4513
0111 1417653320 25.9453
0112 1417659179 26.8558
0113 1417665039 27.7863
0114 1417670898 28.5735
0115 1417676757 28.9573
0116 1417682617 29.7160
0117 1417688476 30.1950
0118 1417694335 30.8766
0119 1417700195 31.6249
0120 1417706054 32.3840
0121 1417711914 32.8176
0122 1417717773 33.5032
0123 1417723632 33.9834
0124 1417729492 34.2985
0125 1417735351 34.6089
0126 1417741210 36.0199
0127 1417747070 36.5266
0128 1417752929 36.6220
0129 1417758789 36.9825
0130 1417764648 37.3066
0131 1417770507 38.2914
0132 1417776367 38.5274
0133 1417782226 38.9027
0134 1417788085 39.5840
0135 1417793945 40.2634
0136 1417799804 40.1315
0137 1417805664 40.2492
0138 1417811523 40.4608
0139 1417817382 41.2098
0140 1417823242 41.3602
0141 1417829101 41.8577
0142 1417834960 41.4450
0143 1417840820 41.6486
0144 1417846679 42.0109
0145 1417852539 42.7181
0146 1417858398 43.3113
0147 1417864257 43.5189
0148 1417870117 42.8746
0149 1417875976 43.3372
0150 1417881835 43.2726
0151 1417887695 43.8092
0152 1417893554 44.0837
0153 1417899414 43.9806
0154 1417905273 43.7167
0155 1417911132 43.5397
0156 1417916992 44.1012
0157 1417922851 44.5147
0158 1417928710 44.3534
0159 1417934570 45.1245
0160 1417940429 44.6593
0161 1417946289 44.7671
0162 1417952148 44.7000
0163 1417958007 44.4045
0164 1417963867 44.7795
0165 1417969726 45.0292
0166 1417975585 44.6338
0167 1417981445 45.0902
0168 1417987304 44.9282
0169 1417993164 44.6363
0170 1417999023 44.8791
0171 1418004882 44.4071
0172 1418010742 45.1475
0173 1418016601 45.2141
0174 1418022460 44.4909
0175 1418028320 44.8120
0176 1418034179 45.2551
0177 1418040039 45.0246
0178 1418045898 44.7923
0179 1418051757 44.6855
0180 1418057617 44.3705
0181 1418063476 45.2413
0182 1418069335 45.4355
0183 1418075195 45.2532
0184 1418081054 45.2643
0185 1418086914 45.0804
0186 1418092773 45.0357
0187 1418098632 44.8536
0188 1418104492 44.3942
0189 1418110351 44.7117
0190 1418116210 44.4048
0191 1418122070 44.1766
0192 1418127929 44.0264
0193 1418133789 44.4364
0194 1418139648 44.7172
0195 1418145507 44.3085
0196 1418151367 44.0747
0197 1418157226 44.6047
0198 1418163085 45.1565
0199 1418168945 43.8020
0200 1418174804 44.9677
0201 1418180664 44.2372
0202 1418186523 43.8032
0203 1418192382 44.1323
0204 1418198242 43.9325
0205 1418204101 44.4214
0206 1418209960 43.6819
0207 1418215820 44.5298
0208 1418221679 44.1412
0209 1418227539 44.2542
0210 1418233398 44.5653
0211 1418239257 44.3387
0212 1418245117 43.7073
0213 1418250976 44.1000
0214 1418256835 44.6604
0215 1418262695 44.3368
0216 1418268554 44.0199
0217 1418274414 44.2158
0218 1418280273 44.0849
0219 1418286132 44.3799
0220 1418291992 44.3472
0221 1418297851 43.9869
0222 1418303710 44.5942
0223 1418309570 43.7984
0224 1418315429 43.9487
0225 1418321289 44.0772
0226 1418327148 43.8614
0227 1418333007 44.1558
0228 1418338867 44.4860
0229 1418344726 44.1305
0230 1418350585 43.5287
0231 1418356445 43.7371
0232 1418362304 43.5673
0233 1418368164 43.8270
0234 1418374023 44.0681
0235 1418379882 43.8423
0236 1418385742 43.3342
0237 1418391601 44.0161
0238 1418397460 44.2113
0239 1418403320 44.0228
0240 1418409179 43.6208
0241 1418415039 44.2878
0242 1418420898 44.1136
0243 1418426757 44.0075
0244 1418432617 43.9692
0245 1418438476 43.8129
0246 1418444335 43.4887
0247 1418450195 43.7169
0248 1418456054 43.1612
0249 1418461914 44.1738
0250 1418467773 43.8299
0251 1418473632 44.1673
0252 1418479492 43.8843
0253 1418485351 44.0424
0254 1418491210 43.5394
0255 1418497070 44.4755
0256 1418502929 44.1716
0257 1418508789 44.3194
0258 1418514648 44.0238
0259 1418520507 44.5948
0260 1418526367 44.3886
0261 1418532226 44.6842
0262 1418538085 44.7700
0263 1418543945 44.2199
0264 1418549804 44.4611
0265 1418555664 44.9094
0266 1418561523 44.5496
0267 1418567382 44.9268
0268 1418573242 44.5963
0269 1418579101 44.4921
0270 1418584960 44.4009
0271 1418590820 44.2627
0272 1418596679 44.7101
0273 1418602539 44.3770
0274 1418608398 44.9500
0275 1418614257 44.3792
0276 1418620117 45.0459
0277 1418625976 45.3038
0278 1418631835 45.1135
0279 1418637695 44.7866
0280 1418643554 45.3014
0281 1418649414 44.9811
0282 1418655273 44.7899
0283 1418661132 45.1598
0284 1418666992 44.7040
0285 1418672851 45.4580
0286 1418678710 45.0236
0287 1418684570 45.3050
0288 1418690429 45.4046
0289 1418696289 45.0879
0290 1418702148 45.4418
0291 1418708007 45.2114
0292 1418713867 45.7042
0293 1418719726 45.1593
0294 1418725585 45.1433
0295 1418731445 45.5021
0296 1418737304 44.9223
0297 1418743164 45.4281
0298 1418749023 46.0584
0299 1418754882 45.4173
0300 1418760742 45.4273
0301 1418766601 44.8861
0302 1418772460 45.0958
0303 1418778320 46.1813
0304 1418784179 45.5537
0305 1418790039 45.6390
0306 1418795898 45.6829
0307 1418801757 45.6102
0308 1418807617 45.8937
0309 1418813476 45.8203
0310 1418819335 45.9263
0311 1418825195 45.6646
0312 1418831054 46.1477
0313 1418836914 45.5512
0314 1418842773 45.8965
0315 1418848632 45.5061
0316 1418854492 46.0125
0317 1418860351 45.8723
0318 1418866210 46.0672
0319 1418872070 45.7442
0320 1418877929 46.1132
0321 1418883789 46.4757
0322 1418889648 46.1543
0323 1418895507 46.1722
0324 1418901367 46.0400
0325 1418907226 45.9046
0326 1418913085 45.9815
0327 1418918945 45.8984
0328 1418924804 46.4553
0329 1418930664 46.1183
0330 1418936523 45.9714
0331 1418942382 46.2798
0332 1418948242 46.1669
0333 1418954101 46.6005
0334 1418959960 46.4018
0335 1418965820 46.3315
0336 1418971679 46.7250
0337 1418977539 46.5754
0338 1418983398 46.6200
0339 1418989257 46.8495
0340 1418995117 46.4495
0341 1419000976 46.6630
0342 1419006835 46.7409
0343 1419012695 46.9872
0344 1419018554 46.9188
0345 1419024414 46.9132
0346 1419030273 46.6885
0347 1419036132 46.8952
0348 1419041992 47.2746
0349 1419047851 46.8021
0350 1419053710 46.7924
0351 1419059570 46.7113
0352 1419065429 47.2496
0353 1419071289 47.1240
0354 1419077148 46.8999
0355 1419083007 46.8086
0356 1419088867 46.9148
0357 1419094726 46.9452
0358 1419100585 47.1356
0359 1419106445 47.0875
0360 1419112304 47.4567
0361 1419118164 47.2104
0362 1419124023 46.9169
0363 1419129882 47.2693
0364 1419135742 47.2359
0365 1419141601 46.8115
0366 1419147460 47.1626
0367 1419153320 47.1283
0368 1419159179 46.9752
0369 1419165039 46.8310
0370 1419170898 47.2960
0371 1419176757 46.7701
0372 1419182617 46.6217
0373 1419188476 47.8928
0374 1419194335 47.3726
0375 1419200195 46.8846
0376 1419206054 46.5912
0377 1419211914 46.9733
0378 1419217773 47.6376
0379 1419223632 47.5588
0380 1419229492 46.8811
0381 1419235351 47.0516
0382 1419241210 46.9964
0383 1419247070 47.0277
0384 1419252929 47.3524
0385 1419258789 47.4694
0386 1419264648 47.1844
0387 1419270507 46.7305
0388 1419276367 47.3111
0389 1419282226 47.3341
0390 1419288085 47.2096
0391 1419293945 47.2651
0392 1419299804 47.3224
0393 1419305664 47.3708
0394 1419311523 47.3881
0395 1419317382 47.4430
0396 1419323242 47.0912
0397 1419329101 47.1817
0398 1419334960 47.6733
0399 1419340820 47.1221
0400 1419346679 47.5003
0401 1419352539 46.6894
0402 1419358398 47.2875
0403 1419364257 47.5414
0404 1419370117 47.3812
0405 1419375976 47.2455
0406 1419381835 47.8592
0407 1419387695 47.1782
0408 1419393554 47.5158
0409 1419399414 47.6109
0410 1419405273 47.2442
0411 1419411132 47.7386
0412 1419416992 47.7651
0413 1419422851 46.9414
0414 1419428710 47.3382
0415 1419434570 47.4817
0416 1419440429 47.0525
0417 1419446289 47.1670
0418 1419452148 47.3000
0419 1419458007 47.0168
0420 1419463867 47.1160
0421 1419469726 47.3546
0422 1419475585 47.7825
0423 1419481445 47.5133
0424 1419487304 47.8762
0425 1419493164 47.5595
0426 1419499023 47.3146
0427 1419504882 47.5591
0428 1419510742 47.5853
0429 1419516601 47.8821
0430 1419522460 47.4734
0431 1419528320 47.4220
0432 1419534179 47.8085
0433 1419540039 47.2411
0434 1419545898 47.3270
0435 1419551757 47.5785
0436 1419557617 47.1564
0437 1419563476 47.3409
0438 1419569335 47.4056
0439 1419575195 47.3671
0440 1419581054 47.1536
0441 1419586914 47.5356
0442 1419592773 47.4143
0443 1419598632 47.0639
0444 1419604492 47.0851
0445 1419610351 47.8422
0446 1419616210 46.9987
0447 1419622070 47.2112
0448 1419627929 47.5018
0449 1419633789 47.2055
0450 1419639648 48.2344
0451 1419645507 47.5736
0452 1419651367 47.1003
0453 1419657226 47.3192
0454 1419663085 47.4238
0455 1419668945 47.4255
0456 1419674804 47.6647
0457 1419680664 47.3215
0458 1419686523 46.9510
0459 1419692382 47.6965
0460 1419698242 47.9256
0461 1419704101 47.6790
0462 1419709960 46.8509
0463 1419715820 47.3709
0464 1419721679 47.6648
0465 1419727539 47.4714
0466 1419733398 47.3078
0467 1419739257 47.6018
0468 1419745117 47.1068
0469 1419750976 46.9691
0470 1419756835 47.7473
0471 1419762695 47.2745
0472 1419768554 47.2280
0473 1419774414 47.2938
0474 1419780273 47.5360
0475 1419786132 47.2874
0476 1419791992 47.3564
0477 1419797851 47.7877
0478 1419803710 47.4536
0479 1419809570 47.7500
0480 1419815429 47.7205
0481 1419821289 47.3216
0482 1419827148 47.0761
0483 1419833007 47.5658
0484 1419838867 47.9873
0485 1419844726 47.9067
0486 1419850585 47.7664
0487 1419856445 47.6965
0488 1419862304 47.9172
0489 1419868164 47.7309
0490 1419874023 47.3627
0491 1419879882 47.0414
0492 1419885742 47.2194
0493 1419891601 46.9505
0494 1419897460 46.9817
0495 1419903320 46.9811
0496 1419909179 47.3494
0497 1419915039 47.6428
0498 1419920898 47.2294
0499 1419926757 46.9447
0500 1419932617 47.2678
0501 1419938476 47.5777
0502 1419944335 47.2805
0503 1419950195 47.7994
0504 1419956054 47.3251
0505 1419961914 47.3926
0506 1419967773 47.3036
0507 1419973632 47.4697
0508 1419979492 47.0556
0509 1419985351 46.9306
0510 1419991210 47.3493
0511 1419997070 47.5260
0512 1420002929 47.0955
0513 1420008789 46.9230
0514 1420014648 47.0798
0515 1420020507 47.7062
0516 1420026367 47.7222
0517 1420032226 47.5435
0518 1420038085 46.9044
0519 1420043945 47.9124
0520 1420049804 47.4195
0521 1420055664 47.3163
0522 1420061523 47.6716
0523 1420067382 47.0997
0524 1420073242 47.0477
0525 1420079101 47.2459
0526 1420084960 47.4147
0527 1420090820 47.5496
0528 1420096679 47.3603
0529 1420102539 47.4393
0530 1420108398 47.0121
0531 1420114257 47.2981
0532 1420120117 47.8370
0533 1420125976 47.6017
0534 1420131835 47.6838
0535 1420137695 48.2404
0536 1420143554 47.1657
0537 1420149414 47.3051
0538 1420155273 47.4212
0539 1420161132 47.6563
0540 1420166992 47.5757
0541 1420172851 47.3476
0542 1420178710 47.3013
0543 1420184570 47.6502
0544 1420190429 48.0057
0545 1420196289 48.2173
0546 1420202148 48.0421
0547 1420208007 47.9862
0548 1420213867 47.6911
0549 1420219726 47.5199
0550 1420225585 47.7083
0551 1420231445 48.4191
0552 1420237304 47.6534
0553 1420243164 47.7122
0554 1420249023 47.3546
0555 1420254882 47.8149
0556 1420260742 47.9742
0557 1420266601 47.3818
0558 1420272460 47.6292
0559 1420278320 47.6398
0560 1420284179 47.4540
0561 1420290039 47.4109
0562 1420295898 47.2803
0563 1420301757 47.6777
0564 1420307617 48.4279
0565 1420313476 47.8816
0566 1420319335 47.7494
0567 1420325195 48.0309
0568 1420331054 47.9432
0569 1420336914 47.7518
0570 1420342773 47.4409
0571 1420348632 48.1339
0572 1420354492 47.9987
0573 1420360351 47.5574
0574 1420366210 47.8319
0575 1420372070 47.8373
0576 1420377929 48.0666
0577 1420383789 48.2662
0578 1420389648 48.0754
0579 1420395507 48.5277
0580 1420401367 47.9923
0581 1420407226 48.1648
0582 1420413085 48.3435
0583 1420418945 48.6517
0584 1420424804 48.2559
0585 1420430664 48.3860
0586 1420436523 48.0505
0587 1420442382 48.3398
0588 1420448242 48.0835
0589 1420454101 48.9289
0590 1420459960 47.9018
0591 1420465820 48.2397
0592 1420471679 47.9960
0593 1420477539 48.5782
0594 1420483398 48.2866
0595 1420489257 48.4774
0596 1420495117 48.3679
0597 1420500976 48.7625
0598 1420506835 48.8767
0599 1420512695 48.3797
0600 1420518554 48.4826
0601 1420524414 48.9943
0602 1420530273 48.1405
0603 1420536132 48.7361
0604 1420541992 48.7704
0605 1420547851 48.2761
0606 1420553710 48.3125
0607 1420559570 48.7361
0608 1420565429 48.7493
0609 1420571289 49.4341
0610 1420577148 49.0500
0611 1420583007 49.3432
0612 1420588867 48.9280
0613 1420594726 48.7372
0614 1420600585 49.0498
0615 1420606445 48.6045
0616 1420612304 49.1382
0617 1420618164 48.3314
0618 1420624023 48.6086
0619 1420629882 48.9365
0620 1420635742 49.4858
0621 1420641601 49.3516
0622 1420647460 48.7781
0623 1420653320 48.8433
0624 1420659179 48.7935
0625 1420665039 49.0274
0626 1420670898 48.9863
0627 1420676757 49.3946
0628 1420682617 49.2500
0629 1420688476 49.2560
0630 1420694335 48.8135
0631 1420700195 48.8494
0632 1420706054 49.2320
0633 1420711914 49.0753
0634 1420717773 49.3499
0635 1420723632 48.2415
0636 1420729492 48.9136
0637 1420735351 49.6066
0638 1420741210 49.3181
0639 1420747070 49.2113
0640 1420752929 49.0927
0641 1420758789 49.4862
0642 1420764648 48.9910
0643 1420770507 49.2803
0644 1420776367 49.2542
0645 1420782226 49.7961
0646 1420788085 49.5697
0647 1420793945 49.2269
0648 1420799804 49.7048
0649 1420805664 49.7359
0650 1420811523 50.1120
0651 1420817382 49.7206
0652 1420823242 49.6763
0653 1420829101 49.7308
0654 1420834960 49.5406
0655 1420840820 49.8766
0656 1420846679 49.7751
0657 1420852539 49.9019
0658 1420858398 49.9210
0659 1420864257 50.1145
0660 1420870117 50.0229
0661 1420875976 49.8263
0662 1420881835 49.7927
0663 1420887695 49.8237
0664 1420893554 50.0646
0665 1420899414 50.1595
0666 1420905273 50.1950
0667 1420911132 50.1310
0668 1420916992 49.9272
0669 1420922851 50.2151
0670 1420928710 50.3951
0671 1420934570 49.9911
0672 1420940429 50.4152
0673 1420946289 50.4526
0674 1420952148 50.4029
0675 1420958007 50.1890
0676 1420963867 49.7682
0677 1420969726 50.2640
0678 1420975585 49.7571
0679 1420981445 50.2510
0680 1420987304 50.3175
0681 1420993164 50.5052
0682 1420999023 50.2488
0683 1421004882 50.0582
0684 1421010742 50.3542
0685 1421016601 50.0450
0686 1421022460 50.3424
0687 1421028320 50.5460
0688 1421034179 50.6955
0689 1421040039 50.8835
0690 1421045898 50.2334
0691 1421051757 50.7219
0692 1421057617 50.3808
0693 1421063476 50.4265
0694 1421069335 50.7881
0695 1421075195 50.8206
0696 1421081054 50.9749
0697 1421086914 50.9966
0698 1421092773 50.5106
0699 1421098632 50.1449
0700 1421104492 50.3940
0701 1421110351 51.2031
0702 1421116210 51.4517
0703 1421122070 51.2519
0704 1421127929 51.2329
0705 1421133789 51.4297
0706 1421139648 50.7896
0707 1421145507 50.5689
0708 1421151367 50.5941
0709 1421157226 50.7111
0710 1421163085 50.4130
0711 1421168945 50.9552
0712 1421174804 51.2464
0713 1421180664 51.0875
0714 1421186523 51.1643
0715 1421192382 51.0322
0716 1421198242 50.8257
0717 1421204101 51.1109
0718 1421209960 50.5756
0719 1421215820 51.6826
0720 1421221679 51.4660
0721 1421227539 50.9200
0722 1421233398 51.3474
0723 1421239257 51.1145
0724 1421245117 51.2384
0725 1421250976 51.1781
0726 1421256835 50.8796
0727 1421262695 51.1084
0728 1421268554 51.0239
0729 1421274414 51.6349
0730 1421280273 51.0478
0731 1421286132 51.8068
0732 1421291992 51.5102
0733 1421297851 51.9682
0734 1421303710 51.5583
0735 1421309570 51.3778
0736 1421315429 51.2906
0737 1421321289 51.9666
0738 1421327148 52.3781
0739 1421333007 52.4181
0740 1421338867 51.4060
0741 1421344726 51.6037
0742 1421350585 51.9020
0743 1421356445 51.8392
0744 1421362304 51.7710
0745 1421368164 52.3761
0746 1421374023 51.8599
0747 1421379882 51.6268
0748 1421385742 51.9177
0749 1421391601 52.4264
0750 1421397460 52.4188
0751 1421403320 52.4115
0752 1421409179 52.2788
0753 1421415039 52.1706
0754 1421420898 51.3361
0755 1421426757 52.0386
0756 1421432617 51.7275
0757 1421438476 52.0291
0758 1421444335 52.6037
0759 1421450195 52.4762
0760 1421456054 52.0966
0761 1421461914 52.5690
0762 1421467773 52.1270
0763 1421473632 51.5667
0764 1421479492 52.1587
0765 1421485351 52.5987
0766 1421491210 52.5681
0767 1421497070 52.3196
0768 1421502929 52.4304
0769 1421508789 52.1717
0770 1421514648 52.9563
0771 1421520507 51.7949
0772 1421526367 52.0048
0773 1421532226 52.4961
0774 1421538085 52.6005
0775 1421543945 52.8392
0776 1421549804 52.2992
0777 1421555664 52.7319
0778 1421561523 52.4384
0779 1421567382 52.7423
0780 1421573242 51.9184
0781 1421579101 51.8336
0782 1421584960 52.1464
0783 1421590820 52.3858
0784 1421596679 52.7601
0785 1421602539 52.6272
0786 1421608398 52.7264
0787 1421614257 52.6904
0788 1421620117 53.1973
0789 1421625976 52.3432
0790 1421631835 52.0784
0791 1421637695 52.5205
0792 1421643554 52.9077
0793 1421649414 53.0513
0794 1421655273 53.0327
0795 1421661132 52.3624
0796 1421666992 52.1493
0797 1421672851 52.8956
0798 1421678710 52.5705
0799 1421684570 52.8291
0800 1421690429 52.4608
0801 1421696289 53.4824
0802 1421702148 53.2648
0803 1421708007 53.5290
0804 1421713867 52.9042
0805 1421719726 53.1013
0806 1421725585 53.4081
0807 1421731445 52.5877
0808 1421737304 53.2150
0809 1421743164 53.6167
0810 1421749023 53.1742
0811 1421754882 53.3683
0812 1421760742 53.3652
0813 1421766601 52.7416
0814 1421772460 53.9655
0815 1421778320 53.0356
0816 1421784179 52.9018
0817 1421790039 53.7289
0818 1421795898 53.4063
0819 1421801757 53.4172
0820 1421807617 53.5080
0821 1421813476 53.6990
0822 1421819335 53.3479
0823 1421825195 53.9999
0824 1421831054 54.0357
0825 1421836914 54.0145
0826 1421842773 54.0600
0827 1421848632 54.2864
0828 1421854492 54.3586
0829 1421860351 54.2340
0830 1421866210 54.2320
0831 1421872070 54.1596
0832 1421877929 54.4319
0833 1421883789 53.9756
0834 1421889648 54.4974
0835 1421895507 55.1685
0836 1421901367 54.7322
0837 1421907226 55.0642
0838 1421913085 54.6144
0839 1421918945 54.8163
0840 1421924804 54.3054
0841 1421930664 54.4582
0842 1421936523 54.7462
0843 1421942382 55.1106
0844 1421948242 55.5915
0845 1421954101 55.4515
0846 1421959960 55.3421
0847 1421965820 55.6805
0848 1421971679 55.5964
0849 1421977539 54.9641
0850 1421983398 56.6223
0851 1421989257 56.5270
0852 1421995117 56.6241
0853 1422000976 57.1676
0854 1422006835 56.3210
0855 1422012695 57.0979
0856 1422018554 56.8631
0857 1422024414 57.1493
0858 1422030273 57.1795
0859 1422036132 57.5286
0860 1422041992 57.1778
0861 1422047851 57.2187
0862 1422053710 57.3668
0863 1422059570 58.3017
0864 1422065429 58.1092
0865 1422071289 58.7329
0866 1422077148 59.0033
0867 1422083007 58.6771
0868 1422088867 58.9930
0869 1422094726 59.6904
0870 1422100585 60.0502
0871 1422106445 59.5731
0872 1422112304 60.4685
0873 1422118164 60.5509
0874 1422124023 60.6338
0875 1422129882 61.5986
0876 1422135742 61.5554
0877 1422141601 62.1744
0878 1422147460 61.8519
0879 1422153320 62.3672
0880 1422159179 62.9719
0881 1422165039 63.2356
0882 1422170898 64.0066
0883 1422176757 64.0117
0884 1422182617 64.9207
0885 1422188476 65.6677
0886 1422194335 65.7546
0887 1422200195 65.1554
0888 1422206054 65.7141
0889 1422211914 66.7706
0890 1422217773 68.2672
0891 1422223632 67.1915
0892 1422229492 68.3174
0893 1422235351 69.0131
0894 1422241210 68.8463
0895 1422247070 69.4814
0896 1422252929 70.3099
0897 1422258789 71.9754
0898 1422264648 72.8719
0899 1422270507 72.9879
0900 1422276367 73.9858
0901 1422282226 75.6389
0902 1422288085 75.7406
0903 1422293945 76.8660
0904 1422299804 76.8973
0905 1422305664 78.7371
0906 1422311523 79.3116
0907 1422317382 81.0948
0908 1422323242 80.9140
0909 1422329101 81.2256
0910 1422334960 82.9664
0911 1422340820 82.4558
0912 1422346679 83.8524
0913 1422352539 84.6453
0914 1422358398 86.1485
0915 1422364257 85.9493
0916 1422370117 87.2575
0917 1422375976 86.5671
0918 1422381835 86.7393
0919 1422387695 86.3726
0920 1422393554 86.7026
0921 1422399414 85.3026
0922 1422405273 84.6851
0923 1422411132 83.9152
0924 1422416992 81.7251
0925 1422422851 78.1499
0926 1422428710 77.5266
0927 1422434570 74.9412
0928 1422440429 71.4407
0929 1422446289 68.4877
0930 1422452148 64.9241
0931 1422458007 61.5527
0932 1422463867 57.2793
0933 1422469726 53.3354
0934 1422475585 49.2090
0935 1422481445 45.8376
0936 1422487304 41.1971
0937 1422493164 37.7441
0938 1422499023 33.7349
0939 1422504882 30.6324
0940 1422510742 27.3198
0941 1422516601 24.2761
0942 1422522460 21.6235
0943 1422528320 19.3131
0944 1422534179 16.9916
0945 1422540039 14.7411
0946 1422545898 13.0880
0947 1422551757 11.3081
0948 1422557617 9.8900
0949 1422563476 8.7241
0950 1422569335 7.5114
0951 1422575195 6.4848
0952 1422581054 5.5256
0953 1422586914 4.7493
0954 1422592773 4.0543
0955 1422598632 3.4612
0956 1422604492 3.0020
0957 1422610351 2.5774
0958 1422616210 2.1916
0959 1422622070 1.8527
0960 1422627929 1.5493
0961 1422633789 1.3182
0962 1422639648 1.1033
0963 1422645507 0.9342
0964 1422651367 0.7808
0965 1422657226 0.6432
0966 1422663085 0.5542
0967 1422668945 0.4670
0968 1422674804 0.3847
0969 1422680664 0.3118
0970 1422686523 0.2617
0971 1422692382 0.2221
0972 1422698242 0.1890
0973 1422704101 0.1641
0974 1422709960 0.1417
0975 1422715820 0.1283
0976 1422721679 0.1196
0977 1422727539 0.1175
0978 1422733398 0.1097
0979 1422739257 0.0998
0980 1422745117 0.0925
0981 1422750976 0.0896
0982 1422756835 0.0892
0983 1422762695 0.0885
0984 1422768554 0.0885
0985 1422774414 0.0887
0986 1422780273 0.0893
0987 1422786132 0.0874
0988 1422791992 0.0874
0989 1422797851 0.0884
0990 1422803710 0.0882
0991 1422809570 0.0893
0992 1422815429 0.0969
0993 1422821289 0.1065
0994 1422827148 0.1006
0995 1422833007 0.0873
0996 1422838867 0.0784
0997 1422844726 0.0741
0998 1422850585 0.0697
0999 1422856445 0.0665
1000 1422862304 0.0630
1001 1422868164 0.0590
1002 1422874023 0.0557
1003 1422879882 0.0526
1004 1422885742 0.0493
1005 1422891601 0.0458
1006 1422897460 0.0435
1007 1422903320 0.0441
1008 1422909179 0.0553
1009 1422915039 0.0682
1010 1422920898 0.0535
1011 1422926757 0.0386
1012 1422932617 0.0336
1013 1422938476 0.0312
1014 1422944335 0.0298
1015 1422950195 0.0296
1016 1422956054 0.0285
1017 1422961914 0.0287
1018 1422967773 0.0293
1019 1422973632 0.0299
1020 1422979492 0.0298
1021 1422985351 0.0287
1022 1422991210 0.0274
1023 1422997070 0.0336
